# FP1-F7,F7-T7,T7-P7,P7-O1,FP1-F3,F3-C3,C3-P3,P3-O1,FP2-F4,F4-C4,C4-P4,P4-O2,FP2-F8,F8-T8,T8-P8-0,P8-O2,FZ-CZ,CZ-PZ,P7-T7,T7-FT9,FT9-FT10,FT10-T8,T8-P8-1
2.533821733821733859e-04,2.654945054945054826e-04,1.260073260073259812e-04,2.420512820512820329e-04,2.225152625152625185e-04,3.455921855921855889e-04,1.517948717948717976e-04,2.025885225885225782e-04,2.092307692307692249e-04,2.725274725274725012e-04,1.443711843711843528e-04,2.420512820512820329e-04,2.010256410256410094e-04,2.451770451770451703e-04,1.939926739926739637e-04,2.428327228327228037e-04,2.346275946275946152e-04,1.322588522588522561e-04,1.256166056166056093e-04,1.588278388278388162e-04,1.498412698412698299e-04,1.580463980463980454e-04,1.939926739926739637e-04
3.155067155067155195e-04,5.089133089133089389e-04,1.682051282051282015e-04,3.412942612942612545e-04,2.623687423687423451e-04,5.440781440781440863e-04,1.818803418803418670e-04,2.549450549450549275e-04,3.932600732600732862e-04,4.694505494505494029e-04,2.166544566544566426e-04,2.713553113553113585e-04,2.045421245421245459e-04,3.518437118437118096e-04,2.299389499389499361e-04,2.932356532356532124e-04,3.721611721611721218e-04,2.709645909645909596e-04,1.685958485958485734e-04,3.108180708180707861e-04,3.135531135531135789e-04,1.693772893772893713e-04,2.299389499389499361e-04
3.956043956043956257e-04,5.647863247863248518e-04,2.189987789987789821e-04,3.741147741147740624e-04,3.147252747252747215e-04,6.847374847374846762e-04,2.240781440781440602e-04,2.959706959706959509e-04,3.022222222222222259e-04,2.748717948717948408e-04,2.447863247863247714e-04,2.838583638583638542e-04,1.916483516483516512e-04,2.361904761904761569e-04,2.510378510378509921e-04,2.483028083028083078e-04,3.905250305250304935e-04,3.014407814407814279e-04,2.193894993894993811e-04,3.053479853479853091e-04,2.944078144078143551e-04,2.490842490842490515e-04,2.510378510378509921e-04
3.686446886446886396e-04,4.768742368742368747e-04,2.565079365079364691e-04,4.674969474969474623e-04,2.580708180708180650e-04,3.709890109890109791e-04,2.483028083028083078e-04,3.565323565323564887e-04,2.783882783882783772e-04,2.901098901098900749e-04,2.436141636141636016e-04,2.541636141636141838e-04,1.889133089133089127e-04,2.334554334554334455e-04,2.490842490842490515e-04,2.322832722832722757e-04,2.963614163614163499e-04,2.865934065934065927e-04,2.568986568986568681e-04,3.862271062271062133e-04,3.026129426129426248e-04,1.654700854700854630e-04,2.490842490842490515e-04
3.432478632478631951e-04,5.530647130647129914e-04,2.815140415140415147e-04,6.702808302808302941e-04,2.955799755799755520e-04,4.674969474969474623e-04,3.487179487179487263e-04,3.854456654456654154e-04,2.744810744810744418e-04,2.483028083028083078e-04,2.014163614163614084e-04,3.100366300366299882e-04,1.842246642246642065e-04,2.080586080586080552e-04,3.244932844932844787e-04,3.026129426129426248e-04,3.233211233211232818e-04,2.318925518925518767e-04,2.819047619047619136e-04,4.514774114774114302e-04,3.834920634920634748e-04,1.326495726495726551e-04,3.244932844932844787e-04
2.822954822954823126e-04,6.288644688644688717e-04,4.264713064713064931e-04,5.761172161172160421e-04,3.690354090354090386e-04,4.385836385836385356e-04,3.475457875457875294e-04,3.084737484737484466e-04,5.053968253968254025e-04,1.639072039072038943e-04,1.795360195360195274e-04,3.225396825396825381e-04,2.127472527472527614e-04,2.346275946275946152e-04,3.854456654456654154e-04,3.608302808302808230e-04,2.252503052503052299e-04,2.779975579975579782e-04,4.268620268620268378e-04,4.444444444444444115e-04,3.670818070818070438e-04,1.838339438339438347e-04,3.854456654456654154e-04
3.491086691086691253e-04,6.230036630036629415e-04,6.245665445665446458e-04,5.175091575091574992e-04,2.916727716727716708e-04,6.378510378510377768e-04,3.870085470085469570e-04,3.553601953601953460e-04,2.248595848595848581e-04,2.275946275946275695e-04,3.115995115995115841e-04,2.932356532356532124e-04,2.072771672771672573e-04,2.850305250305250511e-04,3.358241758241758317e-04,3.311355311355311526e-04,3.303540903540903547e-04,2.565079365079364691e-04,6.249572649572649906e-04,4.940659340659341037e-04,4.139682539682539432e-04,1.947741147741147616e-04,3.358241758241758317e-04
7.089621489621488696e-04,7.367032967032967079e-04,6.409768009768009684e-04,5.952625152625153201e-04,4.714041514041513435e-04,6.855189255189254741e-04,3.983394383394383100e-04,3.627838827838827636e-04,2.647130647130647389e-04,2.916727716727716708e-04,4.256898656898656951e-04,3.237118437118436808e-04,2.916727716727716708e-04,4.362393162393161960e-04,3.112087912087911851e-04,4.014652014652014475e-04,3.897435897435896955e-04,3.213675213675213412e-04,6.413675213675213132e-04,6.448840048840048496e-04,4.389743589743589345e-04,2.830769230769230563e-04,3.112087912087911851e-04
6.988034188034188219e-04,8.035164835164834663e-04,5.206349206349205824e-04,7.937484737484737634e-04,8.730647130647129633e-04,5.745543345543345547e-04,3.659096459096459011e-04,3.846642246642246175e-04,3.924786324786324883e-04,2.815140415140415147e-04,4.217826617826617597e-04,2.791697191697191209e-04,3.213675213675213412e-04,3.541880341880341491e-04,4.463980463980464063e-04,4.491330891330890906e-04,4.409279609279609293e-04,4.483516483516483469e-04,5.210256410256409272e-04,5.460317460317460269e-04,5.499389499389499081e-04,3.956043956043956257e-04,4.463980463980464063e-04
1.191501831501831339e-03,8.007814407814407278e-04,6.503540903540903266e-04,7.183394383394382278e-04,1.026227106227106103e-03,1.495873015873015787e-03,5.554090354090353851e-04,4.448351648351648105e-04,7.152136752136751445e-04,4.491330891330890906e-04,4.088888888888889193e-04,4.682783882783882602e-04,7.761660561660560812e-04,4.174847374847374796e-04,4.237362637362637003e-04,4.409279609279609293e-04,8.867399267399267643e-04,6.999755799755799646e-04,6.507448107448106714e-04,5.081318681318681410e-04,8.804884004884004894e-04,3.452014652014651899e-04,4.237362637362637003e-04
1.114139194139193972e-03,1.209084249084249130e-03,5.464224664224663717e-04,6.937240537240536896e-04,1.046153846153846179e-03,1.591599511599511418e-03,4.620268620268620395e-04,6.737973137973137221e-04,6.749694749694749732e-04,6.593406593406593401e-04,4.932844932844933057e-04,5.683028083028082798e-04,7.441269841269840171e-04,5.823687423687423171e-04,5.491575091575091102e-04,6.362881562881562893e-04,8.480586080586080804e-04,6.257387057387057885e-04,5.460317460317460269e-04,4.956288156288155911e-04,7.957020757020757040e-04,3.967765567765567684e-04,5.491575091575091102e-04
1.203614163614163653e-03,1.081709401709401780e-03,7.378754578754578505e-04,6.831746031746030803e-04,1.065299145299145349e-03,1.390769230769230798e-03,3.811477411477411353e-04,5.425152625152624905e-04,7.214652014652015279e-04,7.781196581196580218e-04,5.307936507936508470e-04,6.968498168498168813e-04,7.511599511599510899e-04,7.308424908424907777e-04,4.807814407814407559e-04,7.105250305250304654e-04,9.351892551892551511e-04,5.944810744810745222e-04,7.382661782661781953e-04,4.952380952380952463e-04,7.581929181929181628e-04,4.495238095238094896e-04,4.807814407814407559e-04
1.003956043956043959e-03,1.068424908424908540e-03,5.733821733821734120e-04,5.811965811965811744e-04,1.023882783882783818e-03,1.331770451770451910e-03,4.968009768009767338e-04,4.725763125763125946e-04,6.655921855921856150e-04,7.480341880341880067e-04,7.898412698412698822e-04,9.211233211233211138e-04,8.351648351648350774e-04,9.269841269841269356e-04,6.163614163614163219e-04,6.761416361416361159e-04,8.515750915750916169e-04,7.316239316239315756e-04,5.737728937728937568e-04,4.463980463980464063e-04,8.230525030525030891e-04,4.858608058608058339e-04,6.163614163614163219e-04
1.172747252747252840e-03,1.129377289377289260e-03,7.546764346764347348e-04,7.804639804639804156e-04,1.265738705738705949e-03,1.632625152625152495e-03,4.897680097680097693e-04,7.843711843711844052e-04,8.461050061050060314e-04,8.632967032967032604e-04,6.155799755799755239e-04,7.761660561660560812e-04,9.000244200244200037e-04,7.949206349206349061e-04,5.233699633699633209e-04,7.538949938949939368e-04,9.633211233211232257e-04,6.519169719169718141e-04,7.550671550671550795e-04,4.100610500610500620e-04,6.609035409035409359e-04,5.311843711843711917e-04,5.233699633699633209e-04
1.237606837606837441e-03,1.232136752136751964e-03,8.582173382173382365e-04,7.015384615384615604e-04,9.863736263736263849e-04,1.423199023199022990e-03,4.206105006105005629e-04,6.683272283272283535e-04,6.265201465201465864e-04,1.044981684981684819e-03,7.109157509157508102e-04,7.464713064713064108e-04,1.109059829059828948e-03,1.185250305250305173e-03,7.136507936507935487e-04,7.316239316239315756e-04,1.113748473748473735e-03,6.230036630036629415e-04,8.586080586080585813e-04,4.612454212454212416e-04,7.781196581196580218e-04,4.792185592185592142e-04,7.136507936507935487e-04
1.323956043956044147e-03,1.140708180708180884e-03,5.710378510378510183e-04,7.960927960927960487e-04,9.094017094017093619e-04,1.658021978021978048e-03,5.300122100122100490e-04,1.235262515262514939e-03,8.492307692307692231e-04,1.054749694749694631e-03,7.058363858363857863e-04,7.261538461538462070e-04,9.101831501831500514e-04,1.026227106227106103e-03,6.714529914529914368e-04,7.632722832722832950e-04,1.191501831501831339e-03,7.019291819291819052e-04,5.706471306471306735e-04,5.241514041514041189e-04,6.843467643467642230e-04,4.549938949938949666e-04,6.714529914529914368e-04
1.309108669108668879e-03,1.099682539682539806e-03,6.675457875457875556e-04,7.624908424908424971e-04,9.812942612942613611e-04,1.479072039072038902e-03,6.089377289377289042e-04,6.855189255189254741e-04,7.773382173382172239e-04,1.023101343101343128e-03,8.843956043956043706e-04,1.022319902319902222e-03,8.464957264957263762e-04,1.015677655677655602e-03,6.339438339438338956e-04,7.726495726495725448e-04,1.211037851037850962e-03,6.753601953601953180e-04,6.679365079365079004e-04,4.260805860805860941e-04,1.047716727716727775e-03,5.593162393162392663e-04,6.339438339438338956e-04
1.300512820512820210e-03,9.562881562881562613e-04,4.631990231990231821e-04,6.046398046398046783e-04,1.086007326007325897e-03,1.799462759462759544e-03,5.413431013431013478e-04,6.753601953601953180e-04,5.808058608058607212e-04,1.134065934065934048e-03,6.773137973137972586e-04,1.022710622710622675e-03,9.109645909645908493e-04,1.047716727716727775e-03,5.858852258852258535e-04,7.175579975579974299e-04,1.320439560439560286e-03,6.952869352869352855e-04,4.635897435897435811e-04,3.807570207570207363e-04,9.820757020757020506e-04,4.073260073260072693e-04,5.858852258852258535e-04
1.156727716727716645e-03,9.226862026862027097e-04,5.081318681318681410e-04,6.069841269841269637e-04,9.230769230769230544e-04,1.759999999999999846e-03,3.995115995115995069e-04,6.089377289377289042e-04,6.909890109890109511e-04,1.085616605616605661e-03,8.386813186813186138e-04,1.018021978021978104e-03,8.711111111111110228e-04,1.120781440781440808e-03,8.406349206349205544e-04,7.492063492063491493e-04,1.299340659340659284e-03,7.144322344322343466e-04,5.085225885225884857e-04,3.643467643467643595e-04,7.531135531135531389e-04,5.362637362637362156e-04,8.406349206349205544e-04
1.181733821733821528e-03,1.014505494505494460e-03,5.366544566544566687e-04,4.452258852258852095e-04,9.809035409035409079e-04,1.638876678876678879e-03,3.881807081807081539e-04,4.370207570207569939e-04,6.980219780219780240e-04,1.111013431013430780e-03,7.316239316239315756e-04,8.761904761904761550e-04,9.324542124542124126e-04,1.013724053724053770e-03,5.034432234432233534e-04,6.073748473748473084e-04,1.191501831501831339e-03,6.769230769230769138e-04,5.370451770451770135e-04,3.112087912087911851e-04,7.007570207570207625e-04,4.112332112332112047e-04,5.034432234432233534e-04
1.201269841269841368e-03,1.288791208791208566e-03,6.956776556776556302e-04,5.065689865689865451e-04,8.511843711843711637e-04,1.538852258852258697e-03,3.498901098901098690e-04,6.140170940170939281e-04,7.070085470085469290e-04,1.053968253968253941e-03,9.027594627594627422e-04,7.484249084249083514e-04,8.726739926739926186e-04,1.152039072039071858e-03,6.108913308913308448e-04,6.015140415140414866e-04,1.416166056166055917e-03,5.007081807081806149e-04,6.960683760683760834e-04,3.780219780219780520e-04,6.816117216117215929e-04,4.694505494505494029e-04,6.108913308913308448e-04
1.007472527472527387e-03,1.134847374847374737e-03,4.999267399267399254e-04,3.850549450549450164e-04,8.535286935286935574e-04,1.523614163614163625e-03,4.092796092796092641e-04,4.354578754578754523e-04,7.738217338217337959e-04,1.175482295482295145e-03,7.195115995115993705e-04,8.171916971916971589e-04,8.023443223443223237e-04,9.812942612942613611e-04,5.632234432234432559e-04,7.351404151404151120e-04,1.268083028083028235e-03,6.515262515262514693e-04,5.003174603174602702e-04,3.721611721611721218e-04,7.296703296703296350e-04,4.421001221001221262e-04,5.632234432234432559e-04
1.030915750915750674e-03,1.024664224664224507e-03,3.666910866910866990e-04,3.151159951159951205e-04,8.621245421245421177e-04,1.418510378510378202e-03,8.398534798534797565e-04,8.386813186813186138e-04,7.359218559218559099e-04,1.502515262515262190e-03,7.339682539682539694e-04,9.527716727716727249e-04,8.054700854700854069e-04,1.015677655677655602e-03,5.557997557997557299e-04,6.632478632478632213e-04,1.140317460317460214e-03,6.151892551892551792e-04,3.663003663003663000e-04,3.819291819291819332e-04,7.367032967032967079e-04,4.471794871794871500e-04,5.557997557997557299e-04
3.831013431013430759e-04,5.456410256410255738e-04,3.846642246642246175e-04,4.245177045177044983e-04,4.143589743589743421e-04,3.080830280830280476e-04,1.682246642246642242e-03,1.647081807081807094e-03,8.953357753357753246e-04,2.768253968253967814e-04,1.642979242979242932e-04,2.498656898656898494e-04,8.855677655677655132e-04,4.936752136752136505e-04,4.858608058608058339e-04,7.601465201465201034e-04,6.589499389499389953e-04,3.682539682539682406e-04,3.850549450549450164e-04,5.421245421245421458e-04,3.881807081807081539e-04,4.549938949938949666e-04,4.858608058608058339e-04
4.901587301587301141e-04,3.108180708180707861e-04,3.553601953601953460e-04,4.081074481074480672e-04,6.675457875457875556e-04,3.162881562881562632e-04,5.026617826617826639e-04,4.792185592185592142e-04,1.333333333333333506e-03,8.308669108669108514e-04,6.933333333333333449e-04,7.449084249084248150e-04,8.488400488400488783e-04,9.293284493284493294e-04,8.039072039072038111e-04,7.343589743589743141e-04,5.757264957264956974e-04,3.686446886446886396e-04,3.557509157509157450e-04,2.428327228327228037e-04,7.304517704517704329e-04,6.046398046398046783e-04,8.039072039072038111e-04
4.663247863247863196e-04,3.682539682539682406e-04,4.194383394383394202e-04,4.561660561660561635e-04,5.894017094017092815e-04,4.092796092796092641e-04,1.764102564102563899e-04,2.443956043956043724e-04,1.220415140415140320e-03,1.012161172161172174e-03,6.948962148962149407e-04,1.112185592185592140e-03,9.859829059829059317e-04,1.141489621489621574e-03,1.062564102564102393e-03,1.043809523809523894e-03,7.699145299145299147e-04,3.502808302808302679e-04,4.198290598290598192e-04,2.733089133089132991e-04,7.679609279609279741e-04,8.984615384615384079e-04,1.062564102564102393e-03
3.858363858363858144e-04,4.506959706959706865e-04,5.518925518925518487e-04,6.507448107448106714e-04,4.925030525030525078e-04,3.405128205128204566e-04,3.467643467643467857e-04,4.858608058608058339e-04,8.179731379731379568e-04,7.742124542124541407e-04,8.461050061050060314e-04,1.406788766788766559e-03,1.037948717948717747e-03,1.006691086691086697e-03,1.229401709401709442e-03,1.372014652014651647e-03,6.226129426129424884e-04,4.909401709401709120e-04,5.522832722832721935e-04,3.444200244200244462e-04,7.683516483516483189e-04,7.871062271062271437e-04,1.229401709401709442e-03
5.909645909645908773e-04,7.597557997557997586e-04,5.593162393162392663e-04,6.984126984126983687e-04,6.991941391941391666e-04,5.542368742368741340e-04,3.268376068376068182e-04,4.964102564102563890e-04,1.051623931623931656e-03,9.258119658119657929e-04,8.926007326007325861e-04,1.314578754578754789e-03,8.961172161172161225e-04,1.018021978021978104e-03,1.309108669108668879e-03,1.375140415140414839e-03,6.945054945054944875e-04,5.897924297924297347e-04,5.597069597069596111e-04,4.909401709401709120e-04,9.023687423687422890e-04,7.234188034188034685e-04,1.309108669108668879e-03
5.382173382173382646e-04,7.492063492063491493e-04,7.214652014652015279e-04,8.605616605616605219e-04,6.226129426129424884e-04,8.480586080586080804e-04,4.874236874236873756e-04,6.214407814407813457e-04,1.256361416361416591e-03,1.034432234432234535e-03,8.492307692307692231e-04,1.502515262515262190e-03,1.066862026862026944e-03,1.041855921855921628e-03,1.407570207570207465e-03,1.383736263736263941e-03,9.422222222222221156e-04,6.097191697191697022e-04,7.218559218559218726e-04,5.128205128205128201e-04,1.013333333333333317e-03,8.640781440781440583e-04,1.407570207570207465e-03
6.206593406593405478e-04,7.898412698412698822e-04,8.578266178266177834e-04,8.285225885225884577e-04,8.550915750915750449e-04,6.382417582417582299e-04,6.132356532356532386e-04,6.632478632478632213e-04,1.202832722832722964e-03,1.173528693528693529e-03,8.351648351648350774e-04,1.329426129426129624e-03,1.047716727716727775e-03,1.169230769230768978e-03,1.471257631257631140e-03,1.349352869352869267e-03,8.136752136752136225e-04,8.390720390720389586e-04,8.582173382173382365e-04,6.179242979242978093e-04,9.168253968253967795e-04,7.410012210012209338e-04,1.471257631257631140e-03
6.120634920634919875e-04,7.914041514041513696e-04,7.749938949938949386e-04,8.562637362637362960e-04,7.757753357753357365e-04,6.218315018315017989e-04,5.589255189255188131e-04,5.897924297924297347e-04,1.009035409035408982e-03,1.204395604395604559e-03,7.906227106227105717e-04,1.172356532356532170e-03,1.074676434676434707e-03,1.256752136752136611e-03,1.335286935286935121e-03,1.006691086691086697e-03,1.048888888888888701e-03,5.167277167277167012e-04,7.753846153846152833e-04,5.432967032967032884e-04,9.058852258852258255e-04,9.773870573870574799e-04,1.335286935286935121e-03
6.241758241758240842e-04,7.292796092796092903e-04,7.187301587301586810e-04,8.781440781440780956e-04,6.409768009768009684e-04,6.237851037851037395e-04,4.190476190476190212e-04,5.722100122100121609e-04,9.824664224664225037e-04,1.001611721611721456e-03,7.531135531135531389e-04,1.215335775335775297e-03,1.045763125763125509e-03,1.073504273504273347e-03,1.289181929181929236e-03,1.400146520146520156e-03,9.250305250305249950e-04,6.163614163614163219e-04,7.191208791208790257e-04,5.612698412698413153e-04,1.134456654456654501e-03,7.808547008547007603e-04,1.289181929181929236e-03
5.370451770451770135e-04,7.996092796092795852e-04,7.800732600732599624e-04,8.468864468864468293e-04,5.221978021978021783e-04,6.300366300366300144e-04,4.948473748473747932e-04,5.597069597069596111e-04,9.305006105006104720e-04,8.800976800976800362e-04,7.585836385836386159e-04,1.142661782661782499e-03,8.304761904761903983e-04,9.082295482295481108e-04,1.029743589743589748e-03,1.239169719169718820e-03,7.234188034188034685e-04,6.605128205128204828e-04,7.796825396825396177e-04,4.725763125763125946e-04,8.968986568986568120e-04,6.605128205128204828e-04,1.029743589743589748e-03
1.035604395604395461e-03,7.550671550671550795e-04,8.101587301587300860e-04,1.011379731379731485e-03,7.206837606837607300e-04,8.191452991452992079e-04,6.612942612942612807e-04,7.031013431013430478e-04,1.067252747252747181e-03,1.015286935286935366e-03,6.487912087912087308e-04,1.059047619047619182e-03,1.098510378510378230e-03,9.355799755799754959e-04,1.115311355311355331e-03,1.101636141636141422e-03,8.711111111111110228e-04,6.237851037851037395e-04,8.105494505494504308e-04,5.233699633699633209e-04,1.068424908424908540e-03,6.073748473748473084e-04,1.115311355311355331e-03
8.957264957264956693e-04,8.972893772893772652e-04,1.121953601953602168e-03,8.988522588522587526e-04,8.566544566544566407e-04,9.238583638583638524e-04,4.815628815628815538e-04,6.507448107448106714e-04,9.156532356532356368e-04,1.069206349206349447e-03,6.417582417582417664e-04,1.084053724053724065e-03,7.945299145299145613e-04,7.277167277167276944e-04,9.691819291819291559e-04,9.910622710622709556e-04,8.840048840048840258e-04,7.081807081807081801e-04,1.121562881562881498e-03,4.440537240537240668e-04,9.629304029304028810e-04,5.722100122100121609e-04,9.691819291819291559e-04
9.367521367521366386e-04,8.879120879120879070e-04,8.929914529914529308e-04,9.297191697191696741e-04,8.871306471306471091e-04,1.312234432234431853e-03,6.265201465201465864e-04,8.539194139194139022e-04,8.664224664224663437e-04,1.055921855921855557e-03,8.136752136752136225e-04,9.109645909645908493e-04,1.058266178266178493e-03,8.742368742368742144e-04,1.030525030525030654e-03,1.144615384615384765e-03,9.687912087912087028e-04,9.027594627594627422e-04,8.933821733821733840e-04,6.761416361416361159e-04,1.032478632478632270e-03,5.518925518925518487e-04,1.030525030525030654e-03
1.046544566544566198e-03,9.047130647130646828e-04,9.558974358974359166e-04,9.699633699633698454e-04,1.053968253968253941e-03,1.230964590964591038e-03,4.499145299145298886e-04,9.578510378510378571e-04,8.207081807081806953e-04,1.046935286935286868e-03,9.379242979242978897e-04,9.242490842490841971e-04,1.061001221001221014e-03,1.002783882783882599e-03,7.710866910866910574e-04,1.215335775335775297e-03,9.047130647130646828e-04,7.214652014652015279e-04,9.562881562881562613e-04,5.116483516483516774e-04,1.243858363858363607e-03,6.261294261294261332e-04,7.710866910866910574e-04
9.687912087912087028e-04,9.527716727716727249e-04,8.836141636141635726e-04,9.613675213675212852e-04,8.617338217338216646e-04,1.177045177045176741e-03,6.366788766788766341e-04,7.113064713064712634e-04,7.988278388278387872e-04,9.406593406593405197e-04,9.871550671550670744e-04,1.020366300366300390e-03,7.933577533577533102e-04,9.019780219780219443e-04,7.742124542124541407e-04,1.418901098901098872e-03,8.476678876678876273e-04,7.007570207570207625e-04,8.840048840048840258e-04,5.897924297924297347e-04,1.333724053724053525e-03,6.648107448107448171e-04,7.742124542124541407e-04
9.883272283272282171e-04,1.010598290598290578e-03,1.135628815628815427e-03,9.578510378510378571e-04,1.082881562881562705e-03,1.180561660561660602e-03,6.198778998778998583e-04,7.445177045177044702e-04,7.546764346764347348e-04,8.367277167277166732e-04,1.029743589743589748e-03,8.117216117216116819e-04,1.137582417582417692e-03,8.828327228327228831e-04,7.144322344322343466e-04,1.315360195360195479e-03,8.687667887667887374e-04,8.042979242979242643e-04,1.135238095238095407e-03,6.480097680097679329e-04,1.083272283272283375e-03,5.604884004884005174e-04,7.144322344322343466e-04
8.410256410256410076e-04,8.597802197802197240e-04,8.293040293040292556e-04,8.140659340659339672e-04,8.062515262515262049e-04,1.223150183150183276e-03,6.640293040293040192e-04,8.406349206349205544e-04,8.121123321123320266e-04,9.957509157509157431e-04,7.718681318681318553e-04,8.164102564102564694e-04,7.581929181929181628e-04,7.863247863247863458e-04,6.276923076923077291e-04,1.198925518925519082e-03,8.156288156288155631e-04,7.640537240537239845e-04,8.289133089133089109e-04,5.425152625152624905e-04,1.182515262515262218e-03,5.479853479853479675e-04,6.276923076923077291e-04
8.988522588522587526e-04,1.084053724053724065e-03,5.593162393162392663e-04,6.945054945054944875e-04,5.112576312576312242e-04,1.125470085470085379e-03,5.124297924297923669e-04,4.194383394383394202e-04,7.835897435897434989e-04,9.785592185592186226e-04,8.519658119658119616e-04,7.957020757020757040e-04,5.569719169719168726e-04,7.300610500610500882e-04,6.675457875457875556e-04,7.761660561660560812e-04,7.960927960927960487e-04,6.284737484737485270e-04,5.597069597069596111e-04,7.519413919413918878e-04,6.812210012210011397e-04,6.902075702075702616e-04,6.675457875457875556e-04
7.175579975579974299e-04,8.402442002442002096e-04,8.324297924297923389e-04,6.093284493284492490e-04,7.855433455433455479e-04,8.988522588522587526e-04,4.772649572649572737e-04,5.214163614163613803e-04,7.917948717948718228e-04,9.008058608058608016e-04,7.972649572649571914e-04,8.300854700854700535e-04,3.690354090354090386e-04,6.780952380952380565e-04,8.328205128205127920e-04,8.988522588522587526e-04,6.773137973137972586e-04,6.495726495726495287e-04,8.328205128205127920e-04,5.979975579975580586e-04,9.308913308913308168e-04,6.343345543345543487e-04,8.328205128205127920e-04
8.605616605616605219e-04,8.578266178266177834e-04,8.136752136752136225e-04,5.647863247863248518e-04,5.389987789987789541e-04,1.069206349206349447e-03,3.784126984126983968e-04,3.815384615384615342e-04,6.831746031746030803e-04,6.780952380952380565e-04,1.012551892551892627e-03,5.671306471306471371e-04,5.573626373626373257e-04,6.605128205128204828e-04,9.894993894993893598e-04,8.562637362637362960e-04,7.460805860805859576e-04,6.796581196581196523e-04,8.140659340659339672e-04,4.034188034188033881e-04,6.851282051282050209e-04,5.030525030525030087e-04,9.894993894993893598e-04
8.523565323565323064e-04,9.508180708180707843e-04,5.499389499389499081e-04,5.093040293040292836e-04,8.414163614163613523e-04,1.116092796092796021e-03,4.081074481074480672e-04,4.671062271062270633e-04,7.163858363858362872e-04,7.929670329670329655e-04,9.809035409035409079e-04,6.956776556776556302e-04,7.777289377289376771e-04,6.581684981684981974e-04,6.687179487179486983e-04,5.378266178266178114e-04,8.371184371184370180e-04,8.429792429792429482e-04,5.503296703296702529e-04,4.663247863247863196e-04,9.074481074481073129e-04,5.311843711843711917e-04,6.687179487179486983e-04
7.781196581196580218e-04,1.161807081807081886e-03,4.968009768009767338e-04,4.288156288156288326e-04,5.053968253968254025e-04,1.222759462759462606e-03,3.623931623931624189e-04,3.182417582417582580e-04,6.441025641025640517e-04,8.578266178266177834e-04,9.562881562881562613e-04,6.671550671550671024e-04,5.163369963369962481e-04,6.112820512820511896e-04,5.526739926739926466e-04,5.409523809523808947e-04,7.386568986568986485e-04,7.417826617826617317e-04,4.964102564102563890e-04,4.159218559218558838e-04,6.937240537240536896e-04,4.268620268620268378e-04,5.526739926739926466e-04
2.404884004884004641e-04,3.381684981684981712e-04,2.975335775335775468e-04,4.143589743589743421e-04,3.444200244200244462e-04,2.776068376068375793e-04,1.521855921855921694e-04,3.373870573870573733e-04,2.701831501831501617e-04,3.248840048840048777e-04,2.850305250305250511e-04,3.002686202686202853e-04,2.561172161172161244e-04,2.584615384615384639e-04,3.748962148962148603e-04,4.225641025641025035e-04,2.471306471306471109e-04,1.545299145299145090e-04,2.979242979242979457e-04,3.870085470085469570e-04,2.623687423687423451e-04,2.021978021978021792e-04,3.748962148962148603e-04
3.854456654456654154e-04,4.788278388278388153e-04,2.619780219780219461e-04,3.018315018315018269e-04,3.311355311355311526e-04,4.370207570207569939e-04,1.596092796092796141e-04,3.616117216117216209e-04,3.959951159951159705e-04,5.042246642246642598e-04,4.038095238095237871e-04,4.104517704517704610e-04,4.073260073260072693e-04,3.920879120879120893e-04,3.928693528693528872e-04,3.620024420024420199e-04,4.463980463980464063e-04,2.760439560439560376e-04,2.615873015873015472e-04,2.928449328449328135e-04,3.190231990231990017e-04,2.381440781440781517e-04,3.928693528693528872e-04
2.881562881562881344e-04,2.916727716727716708e-04,2.287667887667887664e-04,2.682295482295482211e-04,2.647130647130647389e-04,4.409279609279609293e-04,1.701587301587301421e-04,2.697924297924297627e-04,3.377777777777777723e-04,4.088888888888889193e-04,2.959706959706960051e-04,4.885958485958486266e-04,3.948229548229548278e-04,5.456410256410255738e-04,4.284249084249084336e-04,4.131868131868131995e-04,3.514529914529914648e-04,2.318925518925518767e-04,2.283760683760683674e-04,2.092307692307692249e-04,4.635897435897435811e-04,3.588766788766788282e-04,4.284249084249084336e-04
2.756532356532356387e-04,2.760439560439560376e-04,1.596092796092796141e-04,1.705494505494505411e-04,2.697924297924297627e-04,3.854456654456654154e-04,1.131135531135531001e-04,1.463247863247863205e-04,3.909157509157508924e-04,6.917704517704517490e-04,4.784371184371184163e-04,3.452014652014651899e-04,4.245177045177044983e-04,7.406105006105005890e-04,4.776556776556776184e-04,4.815628815628815538e-04,4.272527472527472368e-04,2.385347985347985235e-04,1.592185592185592152e-04,1.435897435897435820e-04,3.041758241758241665e-04,3.510622710622710659e-04,4.776556776556776184e-04
3.741147741147740624e-04,4.440537240537240668e-04,3.405128205128204566e-04,4.139682539682539432e-04,3.092551892551892445e-04,4.940659340659341037e-04,2.432234432234432026e-04,3.534065934065934054e-04,4.428815628815628699e-04,5.163369963369962481e-04,3.666910866910866990e-04,3.655189255189255021e-04,4.506959706959706865e-04,5.862759462759461982e-04,5.729914529914529589e-04,5.073504273504273430e-04,4.831257631257630954e-04,2.119658119658119364e-04,3.401221001221001118e-04,2.764346764346763824e-04,3.284004884004884141e-04,3.987301587301587090e-04,5.729914529914529589e-04
4.483516483516483469e-04,4.143589743589743421e-04,5.542368742368741340e-04,5.241514041514041189e-04,6.550427350427350057e-04,7.988278388278387872e-04,1.452112332112332187e-03,1.243076923076922918e-03,8.906471306471306455e-04,5.331379731379731323e-04,5.429059829059828353e-04,3.549694749694749470e-04,8.441514041514040908e-04,5.667399267399267923e-04,6.460561660561659923e-04,7.316239316239315756e-04,3.666910866910866990e-04,6.777045177045176033e-04,5.538461538461537893e-04,6.843467643467642230e-04,5.831501831501831150e-04,4.319413919413919159e-04,6.460561660561659923e-04
5.050061050061050577e-04,1.158290598290598024e-03,7.933577533577533102e-04,8.031257631257631216e-04,5.272771672771672021e-04,4.850793650793650360e-04,1.353650793650793601e-03,1.315360195360195479e-03,5.573626373626373257e-04,3.131623931623931799e-04,2.658852258852258815e-04,4.198290598290598192e-04,4.698412698412698018e-04,5.538461538461537893e-04,7.452991452991452681e-04,6.452747252747251944e-04,4.159218559218558838e-04,2.600244200244200055e-04,7.937484737484737634e-04,4.495238095238094896e-04,6.085470085470085595e-04,3.842735042735042727e-04,7.452991452991452681e-04
1.390378510378510344e-03,1.422808302808302753e-03,8.039072039072038111e-04,7.835897435897434989e-04,1.090305250305250448e-03,1.585347985347985251e-03,9.558974358974359166e-04,1.107887667887667588e-03,1.133675213675213811e-03,1.052014652014651675e-03,5.280586080586080000e-04,4.717948717948717424e-04,9.703540903540902986e-04,8.879120879120879070e-04,8.687667887667887374e-04,6.710622710622709836e-04,1.103589743589743688e-03,4.155311355311355390e-04,8.042979242979242643e-04,8.062515262515262049e-04,1.075848595848595633e-03,6.808302808302807950e-04,8.687667887667887374e-04
1.146568986568986381e-03,1.438046398046397825e-03,1.122735042735042857e-03,1.157509157509157335e-03,1.196581196581196797e-03,1.226275946275946251e-03,1.195018315018315201e-03,1.763516483516483708e-03,1.209865689865690036e-03,1.061001221001221014e-03,7.406105006105005890e-04,6.441025641025640517e-04,1.038339438339438417e-03,1.228229548229548083e-03,1.206739926739926845e-03,1.056312576312576227e-03,1.090305250305250448e-03,6.300366300366300144e-04,1.122344322344322187e-03,7.066178266178265843e-04,1.405616605616605633e-03,6.460561660561659923e-04,1.206739926739926845e-03
1.153601953601953454e-03,1.325909645909645763e-03,1.091477411477411374e-03,1.313406593406593430e-03,1.183296703296703124e-03,1.454065934065934020e-03,1.034041514041513865e-03,1.155555555555555503e-03,1.048888888888888701e-03,9.512087912087912375e-04,8.105494505494504308e-04,9.441758241758240562e-04,9.934065934065934578e-04,1.262612942612942758e-03,1.218852258852258725e-03,1.223150183150183276e-03,1.365372405372405245e-03,6.308180708180708123e-04,1.091868131868131827e-03,6.612942612942612807e-04,9.414407814407813177e-04,7.480341880341880067e-04,1.218852258852258725e-03
1.465787545787545663e-03,1.318876678876678690e-03,1.234481074481074249e-03,1.186422466422466532e-03,1.045763125763125509e-03,1.517753357753357695e-03,1.021147741147741079e-03,1.245030525030524967e-03,1.052405372405372345e-03,1.307936507936507953e-03,7.792918192918191645e-04,1.263003663003662994e-03,1.309108669108668879e-03,1.203614163614163653e-03,1.331379731379731240e-03,1.629890109890109540e-03,1.357167277167277029e-03,7.660073260073260335e-04,1.234871794871794919e-03,9.387057387057385792e-04,1.450158730158730138e-03,8.144566544566544204e-04,1.331379731379731240e-03
1.290354090354090162e-03,9.941880341880341473e-04,1.021147741147741079e-03,1.438437118437118278e-03,1.209474969474969366e-03,1.273553113553113712e-03,1.038730158730158436e-03,1.351697191697191552e-03,1.175482295482295145e-03,9.941880341880341473e-04,7.667887667887667230e-04,1.015677655677655602e-03,1.020757020757020626e-03,9.082295482295481108e-04,1.236043956043955845e-03,1.207912087912087771e-03,1.227448107448107176e-03,7.097435897435896675e-04,1.021538461538461532e-03,7.191208791208790257e-04,9.934065934065934578e-04,7.558485958485958774e-04,1.236043956043955845e-03
1.282148962148962163e-03,1.258315018315018206e-03,9.805128205128204547e-04,1.187203907203907439e-03,1.234871794871794919e-03,1.289572649572649473e-03,9.613675213675212852e-04,1.171575091575091264e-03,1.102808302808302781e-03,1.342710622710622864e-03,6.585592185592185422e-04,1.141098901098900904e-03,1.359511599511599314e-03,1.152039072039071858e-03,1.301684981684981569e-03,1.375531135531135509e-03,1.057875457875457822e-03,6.491819291819290755e-04,9.801221001221002184e-04,6.655921855921856150e-04,1.272380952380952135e-03,8.195360195360195527e-04,1.301684981684981569e-03
8.265689865689865171e-04,1.155946275946275739e-03,1.139536019536019308e-03,1.048888888888888701e-03,1.216507936507936439e-03,9.832478632478631932e-04,9.219047619047619118e-04,1.165714285714285767e-03,1.170012210012209885e-03,1.224322344322344202e-03,1.168840048840048742e-03,1.266910866910866875e-03,1.153601953601953454e-03,9.332356532356532106e-04,1.140708180708180884e-03,1.267301587301587328e-03,1.444688644688644661e-03,8.746275946275945592e-04,1.139926739926739978e-03,6.866910866910866168e-04,1.098510378510378230e-03,7.527228327228327942e-04,1.140708180708180884e-03
1.100073260073259826e-03,1.009816849816849889e-03,1.018803418803418794e-03,1.210647130647130726e-03,1.269255189255189160e-03,1.221196581196581010e-03,1.245811965811965656e-03,1.386471306471306463e-03,9.398778998778998302e-04,1.280195360195360114e-03,1.044200244200243913e-03,1.106715506715506663e-03,9.941880341880341473e-04,1.064908424908424895e-03,1.309108669108668879e-03,1.372014652014651647e-03,1.342319902319902194e-03,8.636874236874236051e-04,1.019194139194139247e-03,7.284981684981684923e-04,1.235653235653235609e-03,7.148229548229547998e-04,1.309108669108668879e-03
9.015873015873014911e-04,9.519902319902319270e-04,8.339926739926739347e-04,1.023882783882783818e-03,8.414163614163613523e-04,1.312234432234431853e-03,1.001221001221001220e-03,1.105543345543345303e-03,1.106324786324785992e-03,1.197362637362637486e-03,9.926251526251525514e-04,1.186813186813186769e-03,1.263003663003662994e-03,8.316483516483516494e-04,1.187985347985348128e-03,1.393113553113553300e-03,1.372796092796092554e-03,9.777777777777777162e-04,8.336019536019535900e-04,7.808547008547007603e-04,1.342319902319902194e-03,7.320146520146520288e-04,1.187985347985348128e-03
8.613431013431013198e-04,8.800976800976800362e-04,9.168253968253967795e-04,7.554578754578754243e-04,8.816605616605616320e-04,6.882539682539682126e-04,1.211037851037850962e-03,1.146568986568986381e-03,9.199511599511599712e-04,7.292796092796092903e-04,7.261538461538462070e-04,9.629304029304028810e-04,7.109157509157508102e-04,7.753846153846152833e-04,1.113748473748473735e-03,1.144615384615384765e-03,7.683516483516483189e-04,1.082490842490842469e-03,9.172161172161172327e-04,8.601709401709401771e-04,1.110231990231990091e-03,7.382661782661781953e-04,1.113748473748473735e-03
7.238095238095238132e-04,8.480586080586079720e-04,4.452258852258852095e-04,6.366788766788766341e-04,8.027350427350426684e-04,1.253626373626373636e-03,1.250500610500610444e-03,1.296605616605616329e-03,1.077411477411477228e-03,1.000048840048840077e-03,9.918437118437118619e-04,9.449572649572649625e-04,8.965079365079364673e-04,8.085958485958484902e-04,7.523321123321123410e-04,8.703296703296702248e-04,9.691819291819291559e-04,8.562637362637362960e-04,4.448351648351648105e-04,5.218070818070817251e-04,9.262026862026861377e-04,5.511111111111110508e-04,7.523321123321123410e-04
6.847374847374846762e-04,8.765811965811964998e-04,5.339194139194139302e-04,6.155799755799755239e-04,8.312576312576311962e-04,1.119609279609279232e-03,7.792918192918191645e-04,1.135628815628815427e-03,6.128449328449327854e-04,1.042637362637362317e-03,8.003907203907203831e-04,7.800732600732599624e-04,6.128449328449327854e-04,9.109645909645908493e-04,1.007081807081806933e-03,6.245665445665446458e-04,1.020757020757020626e-03,7.292796092796092903e-04,5.335286935286935855e-04,4.948473748473747932e-04,8.504029304029303658e-04,6.019047619047619398e-04,1.007081807081806933e-03
6.003418803418803440e-04,7.738217338217337959e-04,4.690598290598290039e-04,5.014896214896214129e-04,8.136752136752136225e-04,1.061782661782661704e-03,5.745543345543345547e-04,4.479609279609279480e-04,6.612942612942612807e-04,9.301098901098900189e-04,7.859340659340660010e-04,4.799999999999999580e-04,2.940170940170939561e-04,7.464713064713064108e-04,5.917460317460316753e-04,4.108424908424908599e-04,7.214652014652015279e-04,6.976312576312575708e-04,4.694505494505494029e-04,3.151159951159951205e-04,5.210256410256409272e-04,3.428571428571427961e-04,5.917460317460316753e-04
3.135531135531135789e-04,3.225396825396825381e-04,2.748717948717948408e-04,2.869841269841269917e-04,3.557509157509157450e-04,3.440293040293040472e-04,1.810989010989010961e-04,2.459584859584859682e-04,4.221733821733821587e-04,4.034188034188033881e-04,3.690354090354090386e-04,4.311599511599511179e-04,2.717460317460317575e-04,4.616361416361416405e-04,3.815384615384615342e-04,3.729426129426129197e-04,3.588766788766788282e-04,3.205860805860805433e-04,2.752625152625152397e-04,2.404884004884004641e-04,2.955799755799755520e-04,3.764590964590964562e-04,3.815384615384615342e-04
5.561904761904760746e-04,3.752869352869352593e-04,3.764590964590964562e-04,2.490842490842490515e-04,6.261294261294261332e-04,4.592918192918193010e-04,1.928205128205128210e-04,2.490842490842490515e-04,5.065689865689865451e-04,5.581440781440780152e-04,3.889621489621489518e-04,3.983394383394383100e-04,5.479853479853479675e-04,5.815873015873015191e-04,4.659340659340659207e-04,4.288156288156288326e-04,4.448351648351648105e-04,3.151159951159951205e-04,3.768498168498168551e-04,2.170451770451770415e-04,3.366056166056165754e-04,3.897435897435896955e-04,4.659340659340659207e-04
2.576800976800976660e-04,2.838583638583638542e-04,2.721367521367521023e-04,1.978998778998778991e-04,3.623931623931624189e-04,3.002686202686202853e-04,1.842246642246642065e-04,2.412698412698412620e-04,3.373870573870573733e-04,4.167032967032966817e-04,3.885714285714285529e-04,3.037851037851037675e-04,2.854212454212453958e-04,5.198534798534797845e-04,4.256898656898656951e-04,4.467887667887667511e-04,2.733089133089132991e-04,3.178510378510378590e-04,2.725274725274725012e-04,2.002442002442002386e-04,3.592673992673992272e-04,3.788034188034187957e-04,4.256898656898656951e-04
4.401465201465201314e-04,4.335042735042734575e-04,2.897191697191696760e-04,1.932112332112331929e-04,2.916727716727716708e-04,4.514774114774114302e-04,1.756288156288156191e-04,2.080586080586080552e-04,3.444200244200244462e-04,5.425152625152624905e-04,2.889377289377289323e-04,4.338949938949938565e-04,3.846642246642246175e-04,6.019047619047619398e-04,4.210012210012209618e-04,4.530402930402930260e-04,4.057631257631257276e-04,2.791697191697191209e-04,2.901098901098900749e-04,1.998534798534798396e-04,3.307448107448107536e-04,3.627838827838827636e-04,4.210012210012209618e-04
2.541636141636141838e-04,3.557509157509157450e-04,2.174358974358974134e-04,2.033699633699633490e-04,3.182417582417582580e-04,4.381929181929181366e-04,2.186080586080585831e-04,2.338461538461538173e-04,3.784126984126983968e-04,3.709890109890109791e-04,3.354334554334554327e-04,3.557509157509157450e-04,2.647130647130647389e-04,4.729670329670329935e-04,4.557753357753357103e-04,4.065445665445665256e-04,4.084981684981685204e-04,2.842490842490842532e-04,2.170451770451770415e-04,2.014163614163614084e-04,2.799511599511599730e-04,3.737240537240536634e-04,4.557753357753357103e-04
2.127472527472527614e-04,2.725274725274725012e-04,2.811233211233211157e-04,2.174358974358974134e-04,1.740659340659340775e-04,2.670573870573870784e-04,1.330402930402930541e-04,1.549206349206349079e-04,2.815140415140415147e-04,3.471550671550671305e-04,2.412698412698412620e-04,4.186568986568986223e-04,2.916727716727716708e-04,5.347008547008547281e-04,5.304029304029303938e-04,4.882051282051281735e-04,3.229304029304028829e-04,2.045421245421245459e-04,2.815140415140415147e-04,1.959462759462759585e-04,2.588522588522588087e-04,3.885714285714285529e-04,5.304029304029303938e-04
3.201953601953601986e-04,4.596825396825396999e-04,3.850549450549450164e-04,3.135531135531135789e-04,2.733089133089132991e-04,3.475457875457875294e-04,2.213431013431013488e-04,1.978998778998778991e-04,2.529914529914529869e-04,4.100610500610500620e-04,2.479120879120879088e-04,3.424664224664224514e-04,3.764590964590964562e-04,4.194383394383394202e-04,4.757020757020756778e-04,4.565567765567765625e-04,3.690354090354090386e-04,1.865689865689865461e-04,3.854456654456654154e-04,2.905006105006104739e-04,2.717460317460317575e-04,3.659096459096459011e-04,4.757020757020756778e-04
6.300366300366300144e-04,5.257142857142856063e-04,4.936752136752136505e-04,3.666910866910866990e-04,2.967521367521367488e-04,4.124053724053724015e-04,7.249816849816849559e-04,6.003418803418803440e-04,3.537973137973137502e-04,3.702075702075701812e-04,2.830769230769230563e-04,3.205860805860805433e-04,5.073504273504273430e-04,5.604884004884005174e-04,4.213919413919413608e-04,4.163125763125762827e-04,3.424664224664224514e-04,2.205616605616605508e-04,4.940659340659341037e-04,5.397802197802197520e-04,4.557753357753357103e-04,4.596825396825396999e-04,4.213919413919413608e-04
5.100854700854700816e-04,7.523321123321122326e-04,6.190964590964590604e-04,3.612210012210012220e-04,3.041758241758241665e-04,3.764590964590964562e-04,3.174603174603174600e-04,3.373870573870573733e-04,3.592673992673992272e-04,4.432722832722832689e-04,3.569230769230768876e-04,2.748717948717948408e-04,6.687179487179486983e-04,6.269108669108669311e-04,8.804884004884004894e-04,4.471794871794871500e-04,3.612210012210012220e-04,3.155067155067155195e-04,6.194871794871794051e-04,6.167521367521366666e-04,4.729670329670329935e-04,5.120390720390720221e-04,8.804884004884004894e-04
3.940415140415140299e-04,4.604639804639804436e-04,5.085225885225884857e-04,5.124297924297923669e-04,4.452258852258852095e-04,4.589010989010989020e-04,1.158681318681318694e-03,1.283321123321123089e-03,5.604884004884005174e-04,3.069108669108669050e-04,3.276190476190475620e-04,2.690109890109890190e-04,5.518925518925518487e-04,4.561660561660561635e-04,4.463980463980464063e-04,3.866178266178266123e-04,5.546275946275945872e-04,2.912820512820512718e-04,5.089133089133089389e-04,3.666910866910866990e-04,4.932844932844933057e-04,3.713797313797313239e-04,4.463980463980464063e-04
3.483272283272283274e-04,6.546520146520145526e-04,5.600976800976801727e-04,6.112820512820511896e-04,4.034188034188033881e-04,6.780952380952380565e-04,8.976800976800976099e-04,9.058852258852258255e-04,3.006593406593406842e-04,3.139438339438339778e-04,4.280341880341880347e-04,3.577045177045176856e-04,2.850305250305250511e-04,3.663003663003663000e-04,5.315750915750916449e-04,4.585103785103785030e-04,3.201953601953601986e-04,3.147252747252747215e-04,5.604884004884005174e-04,5.300122100122100490e-04,4.139682539682539432e-04,3.166788766788766621e-04,5.315750915750916449e-04
1.184468864468864483e-03,1.441953601953602140e-03,8.683760683760682842e-04,8.332112332112331368e-04,7.218559218559218726e-04,1.313015873015873193e-03,5.862759462759461982e-04,8.293040293040292556e-04,6.132356532356532386e-04,9.402686202686201750e-04,6.140170940170939281e-04,4.596825396825396999e-04,6.468376068376067902e-04,7.245909645909646112e-04,5.878388278388277941e-04,5.159462759462759033e-04,9.258119658119657929e-04,3.999023199023199059e-04,8.679853479853479395e-04,5.073504273504273430e-04,9.308913308913308168e-04,6.038583638583638804e-04,5.878388278388277941e-04
1.262612942612942758e-03,1.168449328449328289e-03,9.691819291819291559e-04,1.188766788766788818e-03,1.104761904761904613e-03,1.373577533577533243e-03,6.937240537240536896e-04,1.084444444444444301e-03,8.636874236874236051e-04,1.086007326007325897e-03,6.640293040293040192e-04,9.633211233211232257e-04,1.133675213675213811e-03,1.048498168498168464e-03,8.304761904761903983e-04,9.523809523809523801e-04,1.186813186813186769e-03,5.706471306471306735e-04,9.687912087912087028e-04,6.948962148962149407e-04,9.703540903540902986e-04,4.971916971916971869e-04,8.304761904761903983e-04
1.068424908424908540e-03,1.171184371184371244e-03,9.656654456654456195e-04,9.019780219780219443e-04,1.170402930402930338e-03,1.170402930402930338e-03,7.914041514041513696e-04,9.797313797313797652e-04,9.746520146520145245e-04,8.785347985347984404e-04,7.714774114774114021e-04,8.433699633699632929e-04,9.305006105006104720e-04,8.695482295482295353e-04,9.094017094017093619e-04,1.064517704517704659e-03,9.578510378510378571e-04,7.449084249084248150e-04,9.660561660561659643e-04,6.304273504273504676e-04,9.773870573870574799e-04,5.468131868131868249e-04,9.094017094017093619e-04
1.006300366300366244e-03,1.465396825396825427e-03,9.840293040293040996e-04,1.060219780219780108e-03,1.162197802197801905e-03,1.187594627594627458e-03,1.204786324786324579e-03,1.428278388278388230e-03,1.257924297924297970e-03,1.410695970695970440e-03,8.476678876678876273e-04,1.308717948717948642e-03,1.478290598290597996e-03,8.230525030525030891e-04,9.539438339438339760e-04,1.174310134310134219e-03,1.179780219780219696e-03,7.288888888888888371e-04,9.844200244200243359e-04,6.003418803418803440e-04,9.281562881562880783e-04,6.065934065934066189e-04,9.539438339438339760e-04
1.178998778998779006e-03,9.934065934065934578e-04,1.419291819291819108e-03,8.953357753357753246e-04,1.357167277167277029e-03,1.251282051282051134e-03,9.363614163614162938e-04,1.119218559218559212e-03,1.255579975579975685e-03,9.863736263736263849e-04,6.394139194139193726e-04,9.754334554334553225e-04,1.181343101343101292e-03,9.469108669108669031e-04,1.551355311355311030e-03,1.178217338217338100e-03,1.012161172161172174e-03,6.757509157509156627e-04,1.419682539682539778e-03,5.440781440781440863e-04,9.937973137973136941e-04,6.632478632478632213e-04,1.551355311355311030e-03
1.261050061050061162e-03,1.266129426129425969e-03,1.368107448107447766e-03,1.302466422466422476e-03,1.391159951159951034e-03,1.168449328449328289e-03,7.425641025641025296e-04,9.422222222222221156e-04,1.124688644688644689e-03,1.092258852258852064e-03,9.105738705738705046e-04,1.070769230769230826e-03,8.500122100122100210e-04,1.264175824175824353e-03,1.390378510378510344e-03,1.221978021978021699e-03,1.227448107448107176e-03,7.433455433455433276e-04,1.368498168498168436e-03,6.280830280830280738e-04,1.316532356532356405e-03,7.937484737484737634e-04,1.390378510378510344e-03
1.487667887667887354e-03,1.210647130647130726e-03,1.301684981684981569e-03,1.123516483516483764e-03,1.142271062271062263e-03,1.273943833943833731e-03,1.096556776556776615e-03,1.405225885225884963e-03,1.344664224664224479e-03,1.230573870573870368e-03,7.581929181929181628e-04,1.139536019536019308e-03,1.237997557997557894e-03,1.089133089133088872e-03,1.345836385836385839e-03,1.155164835164835049e-03,1.048498168498168464e-03,7.031013431013430478e-04,1.302075702075701806e-03,7.234188034188034685e-04,1.221587301587301680e-03,7.445177045177044702e-04,1.345836385836385839e-03
1.046544566544566198e-03,1.171965811965811934e-03,1.290354090354090162e-03,1.005909645909645791e-03,1.125079365079365143e-03,1.458363858363858354e-03,1.191892551892552009e-03,1.632234432234432476e-03,1.236825396825396535e-03,1.289181929181929236e-03,7.984371184371184425e-04,1.028180708180708152e-03,1.289572649572649473e-03,1.082100122100122016e-03,1.273553113553113712e-03,1.259096459096458896e-03,1.311843711843711834e-03,6.882539682539682126e-04,1.289963369963369926e-03,7.898412698412698822e-04,1.111013431013430780e-03,8.488400488400488783e-04,1.273553113553113712e-03
1.258705738705738876e-03,1.159462759462759601e-03,1.026227106227106103e-03,1.071941391941391751e-03,1.046544566544566198e-03,1.418901098901098872e-03,1.083272283272283375e-03,1.250500610500610444e-03,1.205958485958486155e-03,1.345836385836385839e-03,8.910378510378509902e-04,1.150476190476190262e-03,1.107496947496947569e-03,1.004346764346764195e-03,1.321611721611721645e-03,1.311452991452991164e-03,1.427106227106226871e-03,8.390720390720389586e-04,1.026617826617826773e-03,6.558241758241756952e-04,1.469304029304029308e-03,8.183638583638584100e-04,1.321611721611721645e-03
1.181343101343101292e-03,8.972893772893772652e-04,1.037557997557997510e-03,9.930158730158730046e-04,1.200488400488400678e-03,9.984859584859584816e-04,1.321611721611721645e-03,1.478681318681318666e-03,1.269645909645909830e-03,7.277167277167276944e-04,6.187057387057386072e-04,9.129181929181928983e-04,8.414163614163613523e-04,1.038730158730158436e-03,1.089914529914529778e-03,1.201660561660561604e-03,1.044200244200243913e-03,4.932844932844933057e-04,1.037948717948717747e-03,4.909401709401709120e-04,1.408351648351648154e-03,5.835409035409034597e-04,1.089914529914529778e-03
8.621245421245421177e-04,8.164102564102564694e-04,7.742124542124541407e-04,9.527716727716727249e-04,1.068034188034187870e-03,9.113553113553113025e-04,1.139926739926739978e-03,9.414407814407813177e-04,1.279023199023199189e-03,9.820757020757020506e-04,7.335775335775335162e-04,9.816849816849815974e-04,6.769230769230769138e-04,6.300366300366300144e-04,9.734798534798533819e-04,1.069206349206349447e-03,1.054358974358974178e-03,9.586324786324785466e-04,7.746031746031745938e-04,8.246153846153845765e-04,8.918192918192917882e-04,3.979487179487179111e-04,9.734798534798533819e-04
1.041465201465201391e-03,8.410256410256410076e-04,7.781196581196580218e-04,7.570207570207570201e-04,8.578266178266177834e-04,1.246593406593406563e-03,1.028180708180708152e-03,1.221196581196581010e-03,9.039316239316238849e-04,1.038730158730158436e-03,8.066422466422465496e-04,7.847619047619047499e-04,7.355311355311354568e-04,7.511599511599510899e-04,7.476434676434675535e-04,9.129181929181928983e-04,1.220415140415140320e-03,8.226617826617826359e-04,7.785103785103784750e-04,8.629059829059829156e-04,7.972649572649571914e-04,5.761172161172160421e-04,7.476434676434675535e-04
2.799511599511599730e-04,3.287912087912088130e-04,2.682295482295482211e-04,4.241269841269841535e-04,2.760439560439560376e-04,3.549694749694749470e-04,6.624664224664224233e-04,6.276923076923077291e-04,5.382173382173382646e-04,4.565567765567765625e-04,2.315018315018315049e-04,3.018315018315018269e-04,4.252991452991452962e-04,3.647374847374847584e-04,5.264957264957264042e-04,5.534554334554334445e-04,3.037851037851037675e-04,2.209523809523809498e-04,2.686202686202686200e-04,3.788034188034187957e-04,2.658852258852258815e-04,3.014407814407814279e-04,5.264957264957264042e-04
1.517948717948717976e-04,1.846153846153846055e-04,2.662759462759462805e-04,2.799511599511599188e-04,2.541636141636141838e-04,1.771916971916971879e-04,1.822710622710622659e-04,1.435897435897435820e-04,2.670573870573870784e-04,2.779975579975579782e-04,2.647130647130647389e-04,4.378021978021977376e-04,2.553357753357753264e-04,3.190231990231990017e-04,3.799755799755799926e-04,3.877899877899877550e-04,2.400976800976800923e-04,1.998534798534798396e-04,2.666666666666666794e-04,1.642979242979242932e-04,2.221245421245421196e-04,2.096214896214895968e-04,3.799755799755799926e-04
4.045909645909645308e-04,2.709645909645909596e-04,3.006593406593406842e-04,2.971428571428571478e-04,3.827106227106226769e-04,4.463980463980464063e-04,1.435897435897435820e-04,2.244688644688644591e-04,2.764346764346763824e-04,5.350915750915750729e-04,2.635409035409034878e-04,2.498656898656898494e-04,3.358241758241758317e-04,3.205860805860805433e-04,3.401221001221001118e-04,3.471550671550671305e-04,3.268376068376068182e-04,2.010256410256410094e-04,3.010500610500610290e-04,2.021978021978021792e-04,2.506471306471306473e-04,2.189987789987789821e-04,3.401221001221001118e-04
3.627838827838827636e-04,4.045909645909645308e-04,3.725518925518925208e-04,4.018559218559218465e-04,3.647374847374847584e-04,2.729181929181929002e-04,2.123565323565323624e-04,2.260317460317460008e-04,4.565567765567765625e-04,3.221489621489621391e-04,3.643467643467643595e-04,3.131623931623931799e-04,2.865934065934065927e-04,3.104273504273503872e-04,5.683028083028082798e-04,5.229792429792428678e-04,3.573137973137972866e-04,2.627594627594627441e-04,3.729426129426129197e-04,3.854456654456654154e-04,2.940170940170939561e-04,2.357997557997557850e-04,5.683028083028082798e-04
3.225396825396825381e-04,4.979731379731379848e-04,4.600732600732600447e-04,3.479365079365079284e-04,3.030036630036629696e-04,2.291575091575091653e-04,3.119902319902319830e-04,2.611965811965811482e-04,3.670818070818070438e-04,2.643223443223443399e-04,1.971184371184371282e-04,2.639316239316238867e-04,4.338949938949938565e-04,4.971916971916971869e-04,6.257387057387057885e-04,5.327472527472527876e-04,2.182173382173382113e-04,1.525763125763125684e-04,4.604639804639804436e-04,3.174603174603174600e-04,2.369719169719169819e-04,2.713553113553113585e-04,6.257387057387057885e-04
5.370451770451770135e-04,6.144078144078143813e-04,5.792429792429792338e-04,6.273015873015872759e-04,4.721855921855921414e-04,7.273260073260073497e-04,5.347008547008547281e-04,6.726251526251525795e-04,2.596336996336996066e-04,3.369963369963369744e-04,2.920634920634920155e-04,3.498901098901098690e-04,3.776312576312576530e-04,4.796092796092796132e-04,4.338949938949938565e-04,4.846886446886446370e-04,3.487179487179487263e-04,4.546031746031745677e-04,5.788522588522587806e-04,4.526495726495726271e-04,3.764590964590964562e-04,2.940170940170939561e-04,4.338949938949938565e-04
8.007814407814407278e-04,9.258119658119657929e-04,8.203174603174603506e-04,6.890354090354090105e-04,1.018412698412698341e-03,6.991941391941391666e-04,6.675457875457875556e-04,1.097728937728937541e-03,4.671062271062270633e-04,4.100610500610500620e-04,3.100366300366299882e-04,4.389743589743589345e-04,3.815384615384615342e-04,3.663003663003663000e-04,5.991697191697192013e-04,5.768986568986568400e-04,5.233699633699633209e-04,4.421001221001221262e-04,8.199267399267398974e-04,3.983394383394383100e-04,6.921611721611722022e-04,2.397069597069596933e-04,5.991697191697192013e-04
1.266520146520146639e-03,1.316141636141636385e-03,8.304761904761903983e-04,6.722344322344322347e-04,1.159853479853479620e-03,1.405225885225884963e-03,6.894261294261294637e-04,9.047130647130646828e-04,5.983882783882784034e-04,7.777289377289376771e-04,4.803907203907203569e-04,4.585103785103785030e-04,1.043418803418803224e-03,6.218315018315017989e-04,5.979975579975580586e-04,6.737973137973137221e-04,1.045372405372405273e-03,6.163614163614163219e-04,8.308669108669108514e-04,6.726251526251525795e-04,7.484249084249083514e-04,5.331379731379731323e-04,5.979975579975580586e-04
1.315360195360195479e-03,9.996581196581196243e-04,1.018803418803418794e-03,1.011379731379731485e-03,1.245811965811965656e-03,1.297387057387057235e-03,6.929426129426130001e-04,1.168058608058608052e-03,9.535531135531135228e-04,1.214945054945054843e-03,7.335775335775335162e-04,5.491575091575091102e-04,7.558485958485958774e-04,1.205567765567765485e-03,7.363125763125762547e-04,6.108913308913308448e-04,1.189157509157509054e-03,7.167765567765567404e-04,1.019194139194139247e-03,5.589255189255188131e-04,8.175824175824176121e-04,4.323321123321123148e-04,7.363125763125762547e-04
1.468913308913308638e-03,1.037948717948717747e-03,8.246153846153845765e-04,1.010598290598290578e-03,1.023492063492063365e-03,1.377484737484737558e-03,6.952869352869352855e-04,8.750183150183149039e-04,1.252844932844932729e-03,1.129377289377289260e-03,7.687423687423686636e-04,4.807814407814407559e-04,1.000439560439560314e-03,1.207912087912087771e-03,6.065934065934066189e-04,6.433211233211232538e-04,1.339975579975579908e-03,7.734310134310133427e-04,8.242246642246642318e-04,5.534554334554334445e-04,9.617582417582417383e-04,4.440537240537240668e-04,6.065934065934066189e-04
1.204004884004883889e-03,1.065689865689865585e-03,7.581929181929181628e-04,6.558241758241756952e-04,1.127814407814407664e-03,1.367326007326007077e-03,6.476190476190475881e-04,8.035164835164834663e-04,9.074481074481073129e-04,1.183296703296703124e-03,7.015384615384615604e-04,4.401465201465201314e-04,1.183687423687423577e-03,8.515750915750916169e-04,6.409768009768009684e-04,5.405616605616605499e-04,1.378656898656898484e-03,7.765567765567765344e-04,7.578021978021978180e-04,6.042490842490842251e-04,7.695238095238094616e-04,3.670818070818070438e-04,6.409768009768009684e-04
1.199706959706959772e-03,9.543345543345543207e-04,7.077899877899877269e-04,8.187545787545787547e-04,1.187203907203907439e-03,1.606446886446886253e-03,7.116971916971916081e-04,9.019780219780219443e-04,7.898412698412698822e-04,1.284493284493284449e-03,9.211233211233211138e-04,5.343101343101342750e-04,1.104371184371184377e-03,9.273748473748473888e-04,6.886446886446886658e-04,5.862759462759461982e-04,1.197362637362637486e-03,7.523321123321123410e-04,7.081807081807081801e-04,6.167521367521366666e-04,9.918437118437118619e-04,4.499145299145298886e-04,6.886446886446886658e-04
1.046935286935286868e-03,9.922344322344320983e-04,7.421733821733820765e-04,9.031501831501830869e-04,1.135628815628815427e-03,1.114529914529914425e-03,7.656166056166055804e-04,7.996092796092795852e-04,6.694993894993894962e-04,9.375335775335774365e-04,6.964590964590964281e-04,6.788766788766788544e-04,9.812942612942613611e-04,7.578021978021978180e-04,6.648107448107448171e-04,6.612942612942612807e-04,8.894749694749695028e-04,7.835897435897434989e-04,7.425641025641025296e-04,9.086202686202685640e-04,8.820512820512820852e-04,4.167032967032966817e-04,6.648107448107448171e-04
1.154383394383394143e-03,1.340757020757020598e-03,9.039316239316238849e-04,7.628815628815628419e-04,1.181343101343101292e-03,1.515799755799755863e-03,8.519658119658119616e-04,8.523565323565323064e-04,7.863247863247863458e-04,1.327863247863248029e-03,8.765811965811964998e-04,7.261538461538462070e-04,1.121953601953602168e-03,7.898412698412698822e-04,6.206593406593405478e-04,7.370940170940170526e-04,1.451721611721611517e-03,8.726739926739926186e-04,9.043223443223442296e-04,9.676190476190475601e-04,1.020757020757020626e-03,4.096703296703296630e-04,6.206593406593405478e-04
1.230964590964591038e-03,1.123907203907203783e-03,7.523321123321123410e-04,9.977045177045175753e-04,1.186813186813186769e-03,1.569719169719169726e-03,5.862759462759461982e-04,7.898412698412698822e-04,8.937728937728937288e-04,1.484542124542124380e-03,7.660073260073260335e-04,5.960439560439560096e-04,1.059047619047619182e-03,1.106715506715506663e-03,6.843467643467642230e-04,7.847619047619047499e-04,1.420463980463980468e-03,6.741880341880341753e-04,7.527228327228327942e-04,1.049279609279609154e-03,7.792918192918191645e-04,5.171184371184370460e-04,6.843467643467642230e-04
1.108669108669108495e-03,8.589987789987789260e-04,9.254212454212453398e-04,7.433455433455433276e-04,1.125470085470085379e-03,9.793406593406593121e-04,7.917948717948718228e-04,8.253968253968253744e-04,9.004151404151403484e-04,1.011770451770451721e-03,8.730647130647129633e-04,6.788766788766788544e-04,6.913797313797314043e-04,7.038827838827838457e-04,6.136263736263735833e-04,7.351404151404151120e-04,8.957264957264956693e-04,6.362881562881562893e-04,9.258119658119657929e-04,8.425885225885224950e-04,9.512087912087912375e-04,4.237362637362637003e-04,6.136263736263735833e-04
1.010989010989011032e-03,7.578021978021978180e-04,7.378754578754578505e-04,6.757509157509156627e-04,1.218461538461538488e-03,1.044200244200243913e-03,7.382661782661781953e-04,6.905982905982906064e-04,7.949206349206349061e-04,1.402100122100121988e-03,9.258119658119657929e-04,6.276923076923077291e-04,8.883028083028082517e-04,8.343833943833943879e-04,8.074236874236873475e-04,6.870818070818069615e-04,1.084444444444444301e-03,8.234432234432234338e-04,7.382661782661781953e-04,8.777533577533576424e-04,9.840293040293040996e-04,3.666910866910866990e-04,8.074236874236873475e-04
1.066080586080586255e-03,1.025054945054945177e-03,7.398290598290597911e-04,9.898901098901098129e-04,1.302857142857142495e-03,1.501343101343101264e-03,6.019047619047619398e-04,9.504273504273504395e-04,7.656166056166055804e-04,1.518534798534798384e-03,9.086202686202685640e-04,6.206593406593405478e-04,9.004151404151403484e-04,1.017240537240537198e-03,6.304273504273504676e-04,6.233943833943832863e-04,1.298168498168497925e-03,7.902319902319902270e-04,7.402197802197801359e-04,7.195115995115993705e-04,7.824175824175823562e-04,4.053724053724053287e-04,6.304273504273504676e-04
7.593650793650794139e-04,6.413675213675213132e-04,6.007326007326006887e-04,6.065934065934066189e-04,8.738461538461537613e-04,9.269841269841269356e-04,5.347008547008547281e-04,7.410012210012209338e-04,8.101587301587300860e-04,1.180561660561660602e-03,8.933821733821733840e-04,5.515018315018315040e-04,5.862759462759461982e-04,6.913797313797314043e-04,5.976068376068376055e-04,6.003418803418803440e-04,7.757753357753357365e-04,8.371184371184370180e-04,6.003418803418803440e-04,7.660073260073260335e-04,8.507936507936508189e-04,2.658852258852258815e-04,5.976068376068376055e-04
9.656654456654456195e-04,1.223931623931623965e-03,7.511599511599510899e-04,6.784859584859584012e-04,8.586080586080585813e-04,1.292698412698412447e-03,4.764835164835164757e-04,6.780952380952380565e-04,9.008058608058608016e-04,1.273943833943833731e-03,7.296703296703296350e-04,5.456410256410255738e-04,6.515262515262514693e-04,8.871306471306471091e-04,6.909890109890109511e-04,4.311599511599511179e-04,1.368888888888888673e-03,8.660317460317459989e-04,7.515506715506714347e-04,6.386324786324785747e-04,7.449084249084248150e-04,3.436385836385835941e-04,6.909890109890109511e-04
1.061391941391941467e-03,1.031306471306471344e-03,6.589499389499389953e-04,5.854945054945054003e-04,1.143052503052503169e-03,8.707203907203906780e-04,6.851282051282050209e-04,6.390231990231990278e-04,7.644444444444444377e-04,1.147741147741147740e-03,7.882783882783882864e-04,4.620268620268620395e-04,6.519169719169718141e-04,8.390720390720389586e-04,5.503296703296702529e-04,5.538461538461537893e-04,8.894749694749695028e-04,8.859584859584859664e-04,6.593406593406593401e-04,5.296214896214895959e-04,7.327960927960928267e-04,4.057631257631257276e-04,5.503296703296702529e-04
7.671794871794871762e-04,9.101831501831500514e-04,8.429792429792429482e-04,5.038339438339438066e-04,6.472283272283271350e-04,1.139145299145299288e-03,6.007326007326006887e-04,5.292307692307692511e-04,7.437362637362636723e-04,1.185250305250305173e-03,6.937240537240536896e-04,6.390231990231990278e-04,7.265445665445665517e-04,7.929670329670329655e-04,6.183150183150182624e-04,5.651770451770451965e-04,1.076630036630036539e-03,6.042490842490842251e-04,8.433699633699632929e-04,5.050061050061050577e-04,8.531379731379731043e-04,4.272527472527472368e-04,6.183150183150182624e-04
8.914285714285714434e-04,9.195604395604395180e-04,7.327960927960928267e-04,7.937484737484737634e-04,1.050842490842490750e-03,1.094603174603174349e-03,4.784371184371184163e-04,9.043223443223442296e-04,9.203418803418803159e-04,9.109645909645908493e-04,6.683272283272283535e-04,7.062271062271062395e-04,7.202930402930402768e-04,6.866910866910866168e-04,6.347252747252746935e-04,5.659584859584859944e-04,9.894993894993893598e-04,7.234188034188034685e-04,7.331868131868131714e-04,6.941147741147741428e-04,8.105494505494504308e-04,3.409035409035408555e-04,6.347252747252746935e-04
